##TITLE= Aquation of trans-[Co(en)2Cl2]+
##DATA TYPE= LINK
##BLOCKS= 20
##CONCENTRATION= [Co(en)2Cl2]+ 6mM, [H+] 0.1 M HNO3, I= 0.4M KNO3
##COMMENT= Time in 15 minute intervals, t1= 0, t2 = 15,  ....t20 = 285 minutes
##TITLE= Aquation of trans-[Co(en)2Cl2]+ (t1)
##JCAMP-DX= 4.24
##DATA TYPE= UV/VIS SPECTRUM
##BLOCK_ID=1
##ORIGIN= Dept of Chem, UWI, Mona, JAMAICA $$Exported PE IR WinLab Data File
##OWNER= R.J. Lancashire
##DATE= 96/11/06
##TIME= 19:14:14.00
##SPECTROMETER/DATA SYSTEM= PERKIN-ELMER LAMBDA 19 UV/VIS/NIR UV
##RESOLUTION= 1.000000
##DELTAX= -1.000000
##XUNITS= nanometers
##YUNITS= ABSORBANCE
##XFACTOR= 1.00
##YFACTOR= .00000011920928955078
##FIRSTX= 700.00
##LASTX= 350.00
##NPOINTS= 351
##FIRSTY= .20
##MAXY= -.005953
##MINY= .20
##XYDATA= (X++(Y..Y))
  700.000000  -49938   -46272   -42396   -38487   -33496   
  695.000000  -29461   -23832   -19353   -14487   -8926    
  690.000000  -2777    2207     8582     14353    20997    
  685.000000  27406    33353    40551    47295    54468    
  680.000000  61447    68384    76647    82695    90891    
  675.000000  98516    106586   114899   122726   130275   
  670.000000  138404   146356   155349   163956   172487   
  665.000000  181664   190044   198299   206813   216057   
  660.000000  225679   234881   243379   253135   261993   
  655.000000  270952   279375   289391   298266   307334   
  650.000000  316771   325956   335167   344302   352800   
  645.000000  361667   370097   379467   388032   395850   
  640.000000  404214   412519   419691   427358   434740   
  635.000000  441627   449185   455468   461634   467128   
  630.000000  474242   479376   484585   489987   495062   
  625.000000  498921   503485   508124   511395   514818   
  620.000000  518341   521134   524154   525840   527627   
  615.000000  529481   530420   531779   532140   532820   
  610.000000  533650   532492   532442   530798   530177   
  605.000000  529011   527610   525538   523399   521512   
  600.000000  518894   516260   513710   510330   506983   
  595.000000  503149   499458   495943   492521   488628   
  590.000000  483813   479057   475358   470115   465828   
  585.000000  461038   456701   450972   445612   441610   
  580.000000  436560   431309   426603   421167   416193   
  575.000000  411957   405766   401404   397008   392117   
  570.000000  387940   383226   379837   375089   371414   
  565.000000  367631   364620   361130   358873   355434   
  560.000000  352817   349268   347540   344361   342977   
  555.000000  341014   339454   337222   335989   335201   
  550.000000  334345   332634   331921   331627   331157   
  545.000000  331292   331485   331711   331862   332441   
  540.000000  333498   333313   335041   336056   337264   
  535.000000  339496   340897   342398   344160   346022   
  530.000000  348178   351231   353127   354964   357615   
  525.000000  360283   362732   364813   367312   369988   
  520.000000  372689   375315   377823   380659   383553   
  515.000000  386891   389643   392470   395641   398560   
  510.000000  401722   404927   408039   411453   414842   
  505.000000  417870   421746   425429   429044   432081   
  500.000000  435596   439362   442466   446065   449688   
  495.000000  454118   458111   462129   465727   470140   
  490.000000  475173   479191   483461   488603   493401   
  485.000000  497319   503250   507998   513224   518290   
  480.000000  522720   527803   532400   537484   541317   
  475.000000  545889   549630   553925   557616   561978   
  470.000000  565149   569092   572263   575417   578244   
  465.000000  580509   583529   585685   588545   589761   
  460.000000  591775   593016   594199   595533   595935   
  455.000000  596523   597437   597924   598410   598553   
  450.000000  599400   599173   600071   599450   600700   
  445.000000  600365   600952   601791   601506   601178   
  440.000000  603091   604064   604517   606111   607394   
  435.000000  609374   612092   614181   617670   620606   
  430.000000  624809   627795   632552   636872   642543   
  425.000000  648129   653506   660754   666903   673975   
  420.000000  681415   689133   696532   704383   712462   
  415.000000  720708   728954   736612   745672   754346   
  410.000000  762886   770226   779822   788018   796742   
  405.000000  805030   812060   821715   829248   837938   
  400.000000  845924   853910   862483   870771   878481   
  395.000000  886584   893924   901952   910399   916867   
  390.000000  925113   932897   939894   946974   954683   
  385.000000  960957   968566   976275   982625   988447   
  380.000000  995929   997137   1001390  1007237  1014342  
  375.000000  1021464  1027160  1033083  1039617  1044760  
  370.000000  1051093  1058198  1064120  1072660  1079816  
  365.000000  1086912  1097658  1109612  1124258  1140365  
  360.000000  1159004  1182828  1208304  1239803  1277527  
  355.000000  1322783  1376219  1437757  1512735  1600899  
  350.000000  1700422  
##END= 
##TITLE= Aquation of trans-[Co(en)2Cl2]+ (t2)
##JCAMP-DX= 4.24
##DATA TYPE= UV/VIS SPECTRUM
##BLOCK_ID=2
##ORIGIN= Dept of Chem, UWI, Mona, JAMAICA $$Exported PE IR WinLab Data File
##OWNER= R.J. Lancashire
##DATE= 96/11/06
##TIME= 19:12:23.00
##SPECTROMETER/DATA SYSTEM= PERKIN-ELMER LAMBDA 19 UV/VIS/NIR UV
##RESOLUTION= 1.000000
##DELTAX= -1.000000
##XUNITS= nanometers
##YUNITS= ABSORBANCE
##XFACTOR= 1.00
##YFACTOR= .00000011920928955078
##FIRSTX= 700.00
##LASTX= 350.00
##NPOINTS= 351
##FIRSTY= .19
##MAXY= -.007515
##MINY= .19
##XYDATA= (X++(Y..Y))
  700.000000  -63041   -58821   -53964   -50181   -44938   
  695.000000  -40677   -36306   -31474   -26324   -21383   
  690.000000  -14806   -8808    -3490    1460     7114     
  685.000000  12952    19437    25057    32406    38059    
  680.000000  45525    53243    58737    66530    73065    
  675.000000  82041    88869    96193    104027   112500   
  670.000000  120385   127809   136307   144461   153411   
  665.000000  162714   170230   179181   187293   196764   
  660.000000  205421   213994   223481   232541   241139   
  655.000000  250837   260005   268058   277227   286580   
  650.000000  295900   304305   312518   321485   330562   
  645.000000  339278   347524   355971   364351   371842   
  640.000000  380608   387596   395305   402024   410312   
  635.000000  417485   424648   430965   437944   444160   
  630.000000  449772   455770   461315   466726   471541   
  625.000000  475853   481624   484518   489442   492143   
  620.000000  495482   498636   502210   504768   506815   
  615.000000  507838   509390   511605   512897   513207   
  610.000000  513727   514423   514449   514021   513601   
  605.000000  512494   511395   509717   509466   506756   
  600.000000  505288   502956   500867   498242   495767   
  595.000000  492571   490465   486800   484048   480701   
  590.000000  477413   473864   469788   466080   462397   
  585.000000  458211   454487   450418   446039   441887   
  580.000000  437861   433691   429497   425185   420974   
  575.000000  416528   412183   408777   405296   401026   
  570.000000  397620   394466   390196   386975   384358   
  565.000000  381078   377689   375256   371909   369519   
  560.000000  366188   364360   362715   361163   359553   
  555.000000  358353   357061   355702   355484   354511   
  550.000000  354302   354159   353295   353228   353605   
  545.000000  354142   354989   355837   357774   358420   
  540.000000  359855   360920   362883   364980   366910   
  535.000000  368957   371003   373126   375139   377681   
  530.000000  380306   383142   385641   388192   390599   
  525.000000  393258   396563   399256   402142   404482   
  520.000000  407418   410170   413357   416553   419473   
  515.000000  422593   425596   428465   431871   434413   
  510.000000  437609   440729   443816   445855   448892   
  505.000000  452507   455535   458253   462045   464352   
  500.000000  467942   470534   473906   477513   481171   
  495.000000  484258   487504   490684   493804   497982   
  490.000000  501488   504877   508837   513148   516990   
  485.000000  521453   525110   529489   533944   538784   
  480.000000  542987   546862   550276   553967   557079   
  475.000000  560670   564168   566978   569914   573001   
  470.000000  575945   578823   580953   583713   585139   
  465.000000  587136   588361   590676   591456   593067   
  460.000000  593855   594350   595600   596011   595868   
  455.000000  596212   595868   596187   595885   595743   
  450.000000  595541   594618   594249   593989   594165   
  445.000000  594182   594014   593603   593352   592941   
  440.000000  593218   595013   595164   596221   597798   
  435.000000  599291   600432   603963   605935   609525   
  430.000000  612964   616588   620749   625203   631394   
  425.000000  636528   643096   648624   654865   662113   
  420.000000  670040   677280   685333   693772   701405   
  415.000000  710515   718862   727813   737426   745823   
  410.000000  755059   763439   773061   781894   791717   
  405.000000  799753   809207   819693   828401   837502   
  400.000000  846033   855513   864614   872927   881819   
  395.000000  890703   898815   906297   916179   924240   
  390.000000  932411   940388   949155   956579   964439   
  385.000000  972911   979563   987893   995938   1001449  
  380.000000  1008496  1010635  1015173  1021020  1028804  
  375.000000  1034324  1042604  1048383  1053803  1059591  
  370.000000  1065580  1070085  1076922  1083448  1091987  
  365.000000  1099898  1108823  1119754  1131984  1147579  
  360.000000  1164549  1185848  1211768  1240801  1276436  
  355.000000  1319394  1369634  1427062  1497719  1580162  
  350.000000  1675281  
##END= 
##TITLE= Aquation of trans-[Co(en)2Cl2]+ (t3)
##JCAMP-DX= 4.24
##DATA TYPE= UV/VIS SPECTRUM
##BLOCK_ID=3
##ORIGIN= Dept of Chem, UWI, Mona, JAMAICA $$Exported PE IR WinLab Data File
##OWNER= R.J. Lancashire
##DATE= 96/11/06
##TIME= 19:13:04.00
##SPECTROMETER/DATA SYSTEM= PERKIN-ELMER LAMBDA 19 UV/VIS/NIR UV
##RESOLUTION= 1.000000
##DELTAX= -1.000000
##XUNITS= nanometers
##YUNITS= ABSORBANCE
##XFACTOR= 1.00
##YFACTOR= .00000011920928955078
##FIRSTX= 700.00
##LASTX= 350.00
##NPOINTS= 351
##FIRSTY= .19
##MAXY= -.008062
##MINY= .19
##XYDATA= (X++(Y..Y))
  700.000000  -67629   -63167   -59601   -54275   -49728   
  695.000000  -46138   -41516   -36491   -32020   -27255   
  690.000000  -21836   -16685   -10570   -5537    -143     
  685.000000  5847     11837    18254    24017    30686    
  680.000000  36533    43873    51263    58310    65306    
  675.000000  72436    78845    86411    95287    102006   
  670.000000  109782   117609   126148   133656   142263   
  665.000000  150928   159308   166992   175717   185003   
  660.000000  193467   202401   211024   219782   228380   
  655.000000  237616   246105   254729   264770   272882   
  650.000000  281178   290724   298417   307476   315907   
  645.000000  324103   333783   340267   348740   356944   
  640.000000  364250   372413   379686   387739   395272   
  635.000000  401680   408584   415790   422241   428683   
  630.000000  435092   440889   445956   451584   456676   
  625.000000  461089   466407   470324   473621   478185   
  620.000000  482538   485692   488024   491086   493217   
  615.000000  495415   497512   500012   501320   502512   
  610.000000  503602   503376   504458   504701   503862   
  605.000000  504969   503476   502637   501790   500238   
  600.000000  499315   497629   495935   494735   492118   
  595.000000  489971   487345   484778   482127   479585   
  590.000000  476540   473739   470232   467145   464276   
  585.000000  459721   456366   453346   449084   445863   
  580.000000  442567   438481   435285   432014   427710   
  575.000000  424707   421184   417988   414783   412107   
  570.000000  408307   405078   403081   399902   397495   
  565.000000  395070   393082   391035   390155   388510   
  560.000000  387311   385281   383980   383569   383293   
  555.000000  381900   381573   381858   380675   381397   
  550.000000  381447   381388   382328   383142   383653   
  545.000000  385230   386749   387571   389727   391472   
  540.000000  393107   395959   396832   399155   401605   
  535.000000  404197   406588   409088   411655   414691   
  530.000000  417359   420127   423264   425731   429464   
  525.000000  431871   434782   437710   440226   443137   
  520.000000  446392   449747   452247   455602   458698   
  515.000000  461298   464654   468060   470425   473462   
  510.000000  476775   479451   482396   485357   487798   
  505.000000  490449   493863   496572   499106   502017   
  500.000000  504735   506219   509919   512318   514541   
  495.000000  517359   520555   523265   525882   528835   
  490.000000  532467   534573   537568   541233   544706   
  485.000000  548674   551644   554127   558011   561584   
  480.000000  565292   567817   570904   573806   576205   
  475.000000  578814   582145   584376   585693   588579   
  470.000000  590072   592161   593377   595701   596799   
  465.000000  597781   598855   599819   600239   600792   
  460.000000  600616   601212   600532   599752   600256   
  455.000000  600079   599048   598754   597823   596321   
  450.000000  595675   595633   594358   593327   593067   
  445.000000  593109   591548   591179   591540   590995   
  440.000000  590600   591104   590953   592110   593729   
  435.000000  594258   597328   598662   600558   604106   
  430.000000  608091   610733   616026   620799   625958   
  425.000000  631000   637199   642979   649178   656778   
  420.000000  663858   671567   679251   688411   695961   
  415.000000  704862   714257   723778   732309   741327   
  410.000000  751578   760495   770729   780552   790627   
  405.000000  800299   810222   818737   829776   839398   
  400.000000  847887   857526   867282   878380   886525   
  395.000000  894536   904846   914845   923133   932000   
  390.000000  940640   950421   958961   967610   976334   
  385.000000  984815   991542   999755   1008361  1014695  
  380.000000  1022555  1024367  1028880  1036463  1045154  
  375.000000  1050892  1057905  1063131  1070756  1075604  
  370.000000  1081342  1087139  1091736  1099059  1105996  
  365.000000  1112808  1121918  1131389  1143041  1156857  
  360.000000  1174397  1193557  1217632  1245860  1279238  
  355.000000  1318933  1368040  1423262  1491638  1570692  
  350.000000  1661289  
##END= 
##TITLE= Aquation of trans-[Co(en)2Cl2]+ (t4)
##JCAMP-DX= 4.24
##DATA TYPE= UV/VIS SPECTRUM
##BLOCK_ID=4
##ORIGIN= Dept of Chem, UWI, Mona, JAMAICA $$Exported PE IR WinLab Data File
##OWNER= R.J. Lancashire
##DATE= 96/11/06
##TIME= 19:12:56.00
##SPECTROMETER/DATA SYSTEM= PERKIN-ELMER LAMBDA 19 UV/VIS/NIR UV
##RESOLUTION= 1.000000
##DELTAX= -1.000000
##XUNITS= nanometers
##YUNITS= ABSORBANCE
##XFACTOR= 1.00
##YFACTOR= .00000011920928955078
##FIRSTX= 700.00
##LASTX= 350.00
##NPOINTS= 351
##FIRSTY= .19
##MAXY= -.008960
##MINY= .19
##XYDATA= (X++(Y..Y))
  700.000000  -75162   -70700   -66656   -62856   -58888   
  695.000000  -54551   -49317   -44418   -40568   -35769   
  690.000000  -30921   -25745   -19982   -14974   -8834    
  685.000000  -3985    2207     7558     14118    20368    
  680.000000  26768    32330    39519    46163    52882    
  675.000000  59710    66874    74474    82578    89389    
  670.000000  97577    104757   112299   120545   127700   
  665.000000  135929   143404   152119   160600   168217   
  660.000000  177050   185590   194205   202459   210999   
  655.000000  220185   228565   236358   245166   254997   
  650.000000  262245   270575   279458   288090   295615   
  645.000000  303324   312317   320235   328507   336660   
  640.000000  343917   351198   357858   365987   373755   
  635.000000  380843   387269   393887   400959   406915   
  630.000000  412997   419280   424464   429975   434304   
  625.000000  439521   445393   449881   454311   457800   
  620.000000  461382   464838   468076   471256   473571   
  615.000000  475718   478378   479804   482060   483964   
  610.000000  484753   485701   486322   487211   487899   
  605.000000  487202   486758   486598   485692   485650   
  600.000000  485499   483251   482379   481196   479443   
  595.000000  477530   476079   473906   471876   470081   
  590.000000  467674   465274   463421   459797   456894   
  585.000000  454378   451140   448137   445477   442592   
  580.000000  439714   436753   434027   431661   429011   
  575.000000  425487   423357   420454   417854   415119   
  570.000000  413324   411101   408005   405799   403752   
  565.000000  403056   400540   399676   399508   398375   
  560.000000  397318   396823   396161   395372   395238   
  555.000000  395506   394500   395246   395758   396253   
  550.000000  396748   398241   399281   400682   402528   
  545.000000  404507   406135   408014   410665   412158   
  540.000000  415085   417258   419255   421578   425219   
  535.000000  427215   430101   433675   436778   439899   
  530.000000  442978   446778   449596   453363   456215   
  525.000000  459663   462439   465727   468622   471767   
  520.000000  475500   478159   481532   485105   488670   
  515.000000  491682   494517   496749   499525   502285   
  510.000000  505448   508375   511387   514331   517150   
  505.000000  519557   521889   524876   527023   529372   
  500.000000  531561   533692   535730   538130   539967   
  495.000000  542341   544866   547558   549765   552097   
  490.000000  553430   555435   559084   561920   564285   
  485.000000  566642   569176   570946   574519   577145   
  480.000000  579611   582321   584703   586456   588444   
  475.000000  590139   591808   593645   594887   595768   
  470.000000  597286   598611   599417   600457   600717   
  465.000000  601002   601229   601556   602000   601229   
  460.000000  600985   599996   599475   598351   597076   
  455.000000  595759   595206   594392   593142   592093   
  450.000000  590391   588797   587497   586070   585836   
  445.000000  584401   582799   582119   582807   581952   
  440.000000  580769   581507   581390   581490   582791   
  435.000000  584124   584980   587606   589283   592043   
  430.000000  595793   599081   604274   607763   612721   
  425.000000  618425   623735   630270   636478   644329   
  420.000000  652500   659446   667272   675501   684251   
  415.000000  693621   702571   712160   722713   732687   
  410.000000  741788   751695   762122   772323   782423   
  405.000000  793043   802874   813695   823376   833501   
  400.000000  844607   854607   864690   875410   884051   
  395.000000  894385   904385   914770   924601   934382   
  390.000000  944457   954062   962987   971753   981031   
  385.000000  990242   998756   1006524  1015332  1023788  
  380.000000  1030373  1032193  1036144  1046060  1052838  
  375.000000  1058433  1065479  1071888  1077484  1083473  
  370.000000  1091174  1095569  1100309  1106508  1113018  
  365.000000  1120098  1128864  1137051  1148283  1161504  
  360.000000  1177308  1194647  1218479  1245172  1276755  
  355.000000  1315108  1360381  1415662  1479155  1555685  
  350.000000  1644025  
##END= 
##TITLE= Aquation of trans-[Co(en)2Cl2]+ (t5)
##JCAMP-DX= 4.24
##DATA TYPE= UV/VIS SPECTRUM
##BLOCK_ID=5
##ORIGIN= Dept of Chem, UWI, Mona, JAMAICA $$Exported PE IR WinLab Data File
##OWNER= R.J. Lancashire
##DATE= 96/11/06
